Energy per particle (eV)
-0.004148
-0.004681
-0.004135
-0.003956
-0.003854
-0.003568
-0.003891
-0.003884
-0.004320
-0.004168
-0.004014
-0.004791
-0.004185
-0.004640
-0.004117
-0.003852
-0.004495
-0.004039
-0.003618
-0.003406
-0.003810
-0.003805
-0.003278
-0.003350
-0.003617
-0.003185
-0.004137
-0.003924
-0.003783
-0.003841
-0.004057
-0.004312
-0.004166
-0.004182
-0.004271
-0.004183
-0.004079
-0.003594
-0.004345
-0.004134
-0.004011
-0.003994
-0.004232
-0.004034
-0.003746
-0.003418
-0.003238
-0.003598
-0.003366
-0.003713
-0.003798
-0.003399
-0.003393
-0.003819
-0.003896
-0.003404
-0.003994
-0.003788
-0.003595
-0.003871
-0.003800
-0.003818
-0.004004
-0.004151
-0.003899
-0.004039
-0.003646
-0.003696
-0.003644
-0.004007
-0.003835
-0.003321
-0.003712
-0.003561
-0.004004
-0.003866
-0.003379
-0.004385
-0.003907
-0.004331
-0.003903
-0.003813
-0.003953
-0.004010
-0.003912
-0.003951
-0.003607
-0.003328
-0.003480
-0.004115
-0.004034
-0.003726
-0.003513
-0.003292
-0.003881
-0.003377
-0.003556
-0.003710
-0.003674
-0.004193
-0.003651
-0.003725
-0.003916
-0.003713
-0.003846
-0.003806
-0.004237
-0.004197
-0.004175
-0.004179
-0.003919
-0.004033
-0.003802
-0.003486
-0.003354
-0.004175
-0.003845
-0.003726
-0.004033
-0.004036
-0.003727
-0.004436
-0.004091
-0.004104
-0.004220
-0.003753
-0.003923
-0.004094
-0.004036
-0.004053
-0.003916
-0.004056
-0.004533
-0.004525
-0.004647
-0.004094
-0.004198
-0.004439
-0.004318
-0.004546
-0.004111
-0.003835
-0.003785
-0.003963
-0.003911
-0.004069
-0.003896
-0.003889
-0.003885
-0.003809
-0.004411
-0.004053
-0.004405
-0.004216
-0.004129
-0.004493
-0.004332
-0.003826
-0.004345
-0.004198
-0.003942
-0.003932
-0.004899
-0.004005
-0.004377
-0.004089
-0.003997
-0.003942
-0.004156
-0.003617
-0.004279
-0.003650
-0.004143
-0.004385
-0.004084
-0.004568
-0.003789
-0.004294
-0.003518
-0.003767
-0.003692
-0.003552
-0.004008
-0.003131
-0.003358
-0.004136
-0.003929
-0.004073
-0.004199
-0.004501
-0.003957
-0.003767
-0.003683
-0.003737
-0.003451
-0.003960
-0.003913
-0.004077
-0.003736
-0.004179
-0.004038
-0.003559
-0.003416
-0.003819
-0.003722
-0.003466
-0.003327
-0.003930
-0.003969
-0.003811
-0.003887
-0.003863
-0.003994
-0.003460
-0.003817
-0.003483
-0.004043
-0.003563
-0.003533
-0.003790
-0.003706
-0.003508
-0.003866
-0.003183
-0.003261
-0.003730
-0.003244
-0.003693
-0.003916
-0.003616
-0.003319
-0.003681
-0.003881
-0.003890
-0.003502
-0.003942
-0.004086
-0.003281
-0.003218
-0.003906
-0.003803
-0.003979
-0.004135
-0.003506
-0.003917
-0.003753
-0.004097
-0.004043
-0.004001
-0.003725
-0.003707
-0.003826
-0.003422
-0.003787
-0.003401
-0.003761
-0.003840
-0.003410
-0.003282
-0.003555
-0.003831
-0.003685
-0.004138
-0.003745
-0.003605
-0.004468
-0.004046
-0.003266
-0.003732
-0.003959
-0.004227
-0.003769
-0.003768
-0.003953
-0.004335
-0.004186
-0.003980
-0.004127
-0.004592
-0.004377
-0.004584
-0.004215
-0.004855
-0.004460
-0.004557
-0.004407
-0.004128
-0.004177
-0.004156
-0.004016
-0.004006
-0.004001
-0.003614
-0.003681
-0.003912
-0.004578
-0.004151
-0.003853
-0.003579
-0.004000
-0.004155
-0.003864
-0.004038
-0.003501
-0.003762
-0.004148
-0.003735
-0.004477
-0.003740
-0.003242
-0.004121
-0.003835
-0.004111
-0.003990
-0.003450
-0.003563
-0.003971
-0.003439
-0.003944
-0.003132
-0.003843
-0.004022
-0.003714
-0.003376
-0.003725
-0.003638
-0.004318
-0.003819
-0.003806
-0.004066
-0.003841
-0.004071
-0.004020
-0.004081
-0.003825
-0.003529
-0.004149
-0.003176
-0.003555
-0.003412
-0.003479
-0.003436
-0.003638
-0.003618
-0.003815
-0.003578
-0.003130
-0.003779
-0.003927
-0.003699
-0.003152
-0.003514
-0.004204
-0.004123
-0.003927
-0.003646
-0.003688
-0.003485
-0.004050
-0.003418
-0.003872
-0.004135
-0.004048
-0.003841
-0.003474
-0.003623
-0.004105
-0.003670
-0.003719
-0.003555
-0.003452
-0.003691
-0.003452
-0.003404
-0.003763
-0.004182
-0.003515
-0.003691
-0.004293
-0.003819
-0.003808
-0.004361
-0.004164
-0.003820
-0.003867
-0.004272
-0.003784
-0.004387
-0.004286
-0.004458
-0.003874
-0.004398
-0.004117
-0.003716
-0.003958
-0.003811
-0.003365
-0.003867
-0.003325
-0.004129
-0.003543
-0.003655
-0.003854
-0.003650
-0.003789
-0.004031
-0.003686
-0.003435
-0.004055
-0.004039
-0.003799
-0.004436
-0.003788
-0.003991
-0.003276
-0.004022
-0.004131
-0.003849
-0.003605
-0.004066
-0.004573
-0.004161
-0.004253
-0.004101
-0.004074
-0.004283
-0.004080
-0.004226
-0.003645
-0.004251
-0.003719
-0.003350
-0.004010
-0.003905
-0.004401
-0.003621
-0.003908
-0.004129
-0.004176
-0.004066
-0.004294
-0.003983
-0.004345
-0.004125
-0.004098
-0.003900
-0.004453
-0.004530
-0.003946
-0.004357
-0.003959
-0.003171
-0.003978
-0.003990
-0.003523
-0.003650
-0.003744
-0.003227
-0.003801
-0.003824
-0.003824
-0.003974
-0.003997
-0.004273
-0.003495
-0.003773
-0.004251
-0.003676
-0.003823
-0.003289
-0.003727
-0.003857
-0.003520
-0.003953
-0.003716
-0.004429
-0.003895
-0.004007
-0.004181
-0.003979
-0.004286
-0.004047
-0.004136
-0.004223
-0.004173
-0.004278
-0.004453
-0.004202
-0.004672
-0.004412
-0.004102
-0.003699
-0.004408
-0.003511
-0.004364
-0.004350
-0.004446
-0.004460
-0.003900
-0.004028
-0.004222
-0.005136
-0.004216
-0.004100
-0.004400
-0.004425
-0.004246
-0.004227
-0.004102
-0.003964
-0.004437
-0.004347
-0.004378
-0.004316
-0.004297
-0.004548
-0.004594
-0.004780
-0.004357
-0.004556
-0.004123
-0.003603
-0.004083
-0.004038
-0.004283
-0.004003
-0.003705
-0.003985
-0.003558
-0.003691
-0.004283
-0.003808
-0.003911
-0.004197
-0.004231
-0.004040
-0.004324
-0.003832
-0.004153
-0.004216
-0.003960
-0.003766
-0.003966
-0.003733
-0.004324
-0.003829
-0.003198
-0.003239
-0.003875
-0.003467
-0.003820
-0.003739
-0.003838
-0.003566
-0.003619
-0.003288
-0.003632
-0.003371
-0.003414
-0.004296
-0.003725
-0.003900
-0.004018
-0.004261
-0.004286
-0.003782
-0.003769
-0.003524
-0.003413
-0.004209
-0.004492
-0.003855
-0.004260
-0.003764
-0.003625
-0.003573
-0.003984
-0.004009
-0.003815
-0.003852
-0.003872
-0.004626
-0.004079
-0.004270
-0.004598
-0.004126
-0.004421
-0.004070
-0.004061
-0.004628
-0.003956
-0.004194
-0.003834
-0.004050
-0.004450
-0.003915
-0.004046
-0.004405
-0.004091
-0.004105
-0.004010
-0.003616
-0.003459
-0.004125
-0.003515
-0.004064
-0.003901
-0.003770
-0.003777
-0.004412
-0.003981
-0.004108
-0.004358
-0.004036
-0.004485
-0.004891
-0.004845
-0.004014
-0.004162
-0.004723
-0.004972
-0.004847
-0.004443
-0.004749
-0.004325
-0.004218
-0.004010
-0.004173
-0.004286
-0.004562
-0.004269
-0.004052
-0.004409
-0.003832
-0.004273
-0.004598
-0.004453
-0.003845
-0.004467
-0.004785
-0.004600
-0.004180
-0.004465
-0.004211
-0.003950
-0.004383
-0.004374
-0.004401
-0.004339
-0.004801
-0.004459
-0.004464
-0.004643
-0.004600
-0.004166
-0.004449
-0.003987
-0.004733
-0.004160
-0.004243
-0.004790
-0.004361
-0.004006
-0.003981
-0.004035
-0.003729
-0.003602
-0.004044
-0.004226
-0.004112
-0.004019
-0.003717
-0.003627
-0.003524
-0.003632
-0.003803
-0.003813
-0.004061
-0.003856
-0.003374
-0.003628
-0.004055
-0.003559
-0.004119
-0.003766
-0.003711
-0.004157
-0.004576
-0.004407
-0.004229
-0.003670
-0.003946
-0.003714
-0.004410
-0.004424
-0.004333
-0.004041
-0.003512
-0.004253
-0.003957
-0.004030
-0.004158
-0.004026
-0.003744
-0.003818
-0.003500
-0.004001
-0.003835
-0.003751
-0.003967
-0.004388
-0.004232
-0.003602
-0.003825
-0.003977
-0.003723
-0.003609
-0.003764
-0.004488
-0.004273
-0.004173
-0.004069
-0.004236
-0.003953
-0.003643
-0.004261
-0.004020
-0.003903
-0.004212
-0.004137
-0.003570
-0.003594
-0.004586
-0.004315
-0.004397
-0.004276
-0.003848
-0.003951
-0.003940
-0.004356
-0.004487
-0.004588
-0.004448
-0.004322
-0.004490
-0.004298
-0.004596
-0.004542
-0.004260
-0.004394
-0.004313
-0.004848
-0.004399
-0.004473
-0.004162
-0.003841
-0.004368
-0.004272
-0.004301
-0.004351
-0.004125
-0.004036
-0.004034
-0.003839
-0.004082
-0.004140
-0.003895
-0.003930
-0.004096
-0.003583
-0.003528
-0.004365
-0.004250
-0.004611
-0.003911
-0.004196
-0.004037
-0.004358
-0.004021
-0.003810
-0.003530
-0.003872
-0.003813
-0.003379
-0.003584
-0.003408
-0.004154
-0.004020
-0.003982
-0.003740
-0.004666
-0.004130
-0.003791
-0.004040
-0.004342
-0.004553
-0.004058
-0.004148
-0.003596
-0.003754
-0.003877
-0.003806
-0.003543
-0.004183
-0.003973
-0.004086
-0.003970
-0.004165
-0.004559
-0.004301
-0.004232
-0.004357
-0.003894
-0.004511
-0.004073
-0.004148
-0.003521
-0.004242
-0.003652
-0.003497
-0.003501
-0.003809
-0.003783
-0.004053
-0.003762
-0.003451
-0.003500
-0.004428
-0.004182
-0.003726
-0.003981
-0.003900
-0.003509
-0.003789
-0.004146
-0.004321
-0.003974
-0.004042
-0.003787
-0.003442
-0.004095
-0.004028
-0.004035
-0.004018
-0.003747
-0.003474
-0.004131
-0.003806
-0.003796
-0.004197
-0.003929
-0.004528
-0.004267
-0.004721
-0.004146
-0.003654
-0.003792
-0.003847
-0.004356
-0.004291
-0.003986
-0.004509
-0.004571
-0.004403
-0.004660
-0.004847
-0.005038
-0.004563
-0.004649
-0.004777
-0.004329
-0.004302
-0.004182
-0.004059
-0.003950
-0.004317
-0.003791
-0.003602
-0.003876
-0.003693
-0.003910
-0.004209
-0.003414
-0.003759
-0.003592
-0.003751
-0.003705
-0.003537
-0.003743
-0.003891
-0.003455
-0.003668
-0.004259
-0.003764
-0.003725
-0.003457
-0.003539
-0.003992
-0.004035
-0.004283
-0.003305
-0.003359
-0.002979
-0.003486
-0.003584
-0.004094
-0.003349
-0.003672
-0.003523
-0.003692
-0.004044
-0.004195
-0.003747
-0.003615
-0.003655
-0.003993
-0.003887
-0.004166
-0.003136
-0.003549
-0.003643
-0.003473
-0.003681
-0.004154
-0.003540
-0.003619
-0.003306
-0.003915
-0.003878
-0.003862
-0.003717
-0.004025
-0.003660
-0.003799
-0.003329
-0.003583
-0.003380
-0.003412
-0.003763
-0.003430
-0.003679
-0.003441
-0.003259
-0.003226
-0.003933
-0.003812
-0.003714
-0.003812
-0.003634
-0.003720
-0.003844
-0.003474
-0.003336
-0.003643
-0.004083
-0.003483
-0.003590
-0.003419
-0.003797
-0.003581
-0.004098
-0.003478
-0.003777
-0.004000
-0.003865
-0.004180
-0.003922
-0.004279
-0.003919
-0.004120
-0.003859
-0.003877
-0.003458
-0.003490
-0.003752
-0.003415
-0.003699
-0.004223
-0.003731
-0.004204
-0.003852
-0.004401
-0.004169
-0.004219
-0.004374
-0.004169
-0.004189
-0.004055
-0.004436
-0.004329
-0.004277
-0.004279
-0.004140
-0.004315
-0.003959
-0.004106
-0.003964
-0.003851
-0.004168
-0.003896
