Energy per particle (eV)
-0.004515
-0.005031
-0.004757
-0.004928
-0.004291
-0.004152
-0.004551
-0.004509
-0.004666
-0.004508
-0.004516
-0.004636
-0.004320
-0.004627
-0.004590
-0.005405
-0.005324
-0.004973
-0.004863
-0.004863
-0.004157
-0.004637
-0.004526
-0.004134
-0.004168
-0.003791
-0.004209
-0.004616
-0.005219
-0.004712
-0.004833
-0.004351
-0.004367
-0.004846
-0.005110
-0.005104
-0.005081
-0.005242
-0.005028
-0.005216
-0.004884
-0.005264
-0.004807
-0.004522
-0.004667
-0.004704
-0.005191
-0.004707
-0.004041
-0.004458
-0.004066
-0.004508
-0.004335
-0.004225
-0.004135
-0.004184
-0.004339
-0.004549
-0.004691
-0.004876
-0.005134
-0.004837
-0.004951
-0.004767
-0.004927
-0.005218
-0.005062
-0.004219
-0.003981
-0.004201
-0.003984
-0.004597
-0.003996
-0.004464
-0.004341
-0.004747
-0.005063
-0.004862
-0.004860
-0.004606
-0.004649
-0.004403
-0.004304
-0.004328
-0.003913
-0.004002
-0.004950
-0.004740
-0.004552
-0.004686
-0.004748
-0.004414
-0.004263
-0.004567
-0.004391
-0.004188
-0.004656
-0.004102
-0.004501
-0.004200
-0.004713
-0.004126
-0.004071
-0.004322
-0.004584
-0.005078
-0.004258
-0.004083
-0.004301
-0.004313
-0.004060
-0.004555
-0.004019
-0.004482
-0.004666
-0.004029
-0.004514
-0.004146
-0.004421
-0.004365
-0.004649
-0.004319
-0.004700
-0.004422
-0.004501
-0.004198
-0.004539
-0.004615
-0.004263
-0.004378
-0.004422
-0.004433
-0.003725
-0.003963
-0.003667
-0.003853
-0.003736
-0.004070
-0.004204
-0.004369
-0.004553
-0.004553
-0.004697
-0.004650
-0.004846
-0.004810
-0.004769
-0.004777
-0.004104
-0.004880
-0.004866
-0.005357
-0.004470
-0.004347
-0.004790
-0.004720
-0.004812
-0.005536
-0.005410
-0.004945
-0.005730
-0.005114
-0.004753
-0.005454
-0.004547
-0.005313
-0.004970
-0.005017
-0.004680
-0.005208
-0.004944
-0.005604
-0.005263
-0.005226
-0.004848
-0.004702
-0.005000
-0.004843
-0.005526
-0.005128
-0.004844
-0.004734
-0.004655
-0.005024
-0.004687
-0.004776
-0.004501
-0.004543
-0.004400
-0.004584
-0.004547
-0.004329
-0.004033
-0.004605
-0.004849
-0.004712
-0.004503
-0.004508
-0.004875
-0.004464
-0.004716
-0.004434
-0.003955
-0.004204
-0.004579
-0.004364
-0.004730
-0.004966
-0.004455
-0.004166
-0.004562
-0.004307
-0.004357
-0.004232
-0.004635
-0.004690
-0.004471
-0.004776
-0.004547
-0.004424
-0.004759
-0.004461
-0.004816
-0.004743
-0.004316
-0.004494
-0.004592
-0.004978
-0.004489
-0.005403
-0.005044
-0.004579
-0.004787
-0.004637
-0.004281
-0.004607
-0.004227
-0.004236
-0.004619
-0.004690
-0.004387
-0.004448
-0.004656
-0.004361
-0.004244
-0.004751
-0.004409
-0.004107
-0.004425
-0.004915
-0.004882
-0.004696
-0.004688
-0.004938
-0.004343
-0.004636
-0.004710
-0.004802
-0.004940
-0.004395
-0.004822
-0.004995
-0.004272
-0.004909
-0.005013
-0.004879
-0.005007
-0.004808
-0.004500
-0.004573
-0.004376
-0.004531
-0.004557
-0.004125
-0.004631
-0.004576
-0.005037
-0.004890
-0.004605
-0.004681
-0.004878
-0.005202
-0.004595
-0.004701
-0.004348
-0.004591
-0.004595
-0.004347
-0.004308
-0.004654
-0.004521
-0.004432
-0.004717
-0.005036
-0.005252
-0.005037
-0.004779
-0.004990
-0.004653
-0.004640
-0.004819
-0.004310
-0.004219
-0.004496
-0.004807
-0.004495
-0.004500
-0.004322
-0.004116
-0.004519
-0.004752
-0.004879
-0.005329
-0.005159
-0.005204
-0.005052
-0.004863
-0.004577
-0.004777
-0.004669
-0.004391
-0.004768
-0.004149
-0.005061
-0.005086
-0.005307
-0.005275
-0.004834
-0.004905
-0.004617
-0.005083
-0.004526
-0.004483
-0.005041
-0.004570
-0.004610
-0.005039
-0.004369
-0.004164
-0.004553
-0.004963
-0.004628
-0.004629
-0.004643
-0.003979
-0.004303
-0.004619
-0.004385
-0.004667
-0.004783
-0.004858
-0.004828
-0.004754
-0.004245
-0.004174
-0.004502
-0.004752
-0.005214
-0.004684
-0.004294
-0.004392
-0.004959
-0.004977
-0.004739
-0.004432
-0.004912
-0.004855
-0.004523
-0.004807
-0.004540
-0.004499
-0.004729
-0.004391
-0.004581
-0.004844
-0.005263
-0.004652
-0.005386
-0.004830
-0.004622
-0.005157
-0.004585
-0.005155
-0.004307
-0.004402
-0.004629
-0.004680
-0.004193
-0.004286
-0.004520
-0.004428
-0.004275
-0.004522
-0.004816
-0.004316
-0.004606
-0.004305
-0.004481
-0.005102
-0.004719
-0.004656
-0.004526
-0.004745
-0.005195
-0.004800
-0.004017
-0.004878
-0.004949
-0.004876
-0.004896
-0.004521
-0.004192
-0.004580
-0.004791
-0.005720
-0.005095
-0.004926
-0.004840
-0.004928
-0.004875
-0.004465
-0.004611
-0.005329
-0.005618
-0.005822
-0.005247
-0.005082
-0.004927
-0.004953
-0.005122
-0.004830
-0.004986
-0.005281
-0.005353
-0.006120
-0.004956
-0.004930
-0.004739
-0.004359
-0.004846
-0.005491
-0.005044
-0.005425
-0.005308
-0.005188
-0.005126
-0.005191
-0.005046
-0.005054
-0.004946
-0.004570
-0.005358
-0.004753
-0.004391
-0.004449
-0.004254
-0.004605
-0.004615
-0.004476
-0.004532
-0.004582
-0.005045
-0.004588
-0.003974
-0.004474
-0.003853
-0.004270
-0.004463
-0.004527
-0.004692
-0.004608
-0.004833
-0.004718
-0.004579
-0.004500
-0.004688
-0.004868
-0.004749
-0.004279
-0.004351
-0.004507
-0.004336
-0.004413
-0.003909
-0.004368
-0.003921
-0.003928
-0.003834
-0.004753
-0.004070
-0.004456
-0.004750
-0.004369
-0.004648
-0.004365
-0.005102
-0.004412
-0.004829
-0.004492
-0.004155
-0.004739
-0.004747
-0.004219
-0.004394
-0.004707
-0.004409
-0.004401
-0.004694
-0.004652
-0.004526
-0.004754
-0.003972
-0.004771
-0.004950
-0.004781
-0.004715
-0.004952
-0.004511
-0.004745
-0.004824
-0.004617
-0.005164
-0.005274
-0.004873
-0.004938
-0.004354
-0.004924
-0.004089
-0.004376
-0.004656
-0.004847
-0.005259
-0.004763
-0.004778
-0.004500
-0.005160
-0.004861
-0.004878
-0.005006
-0.004765
-0.004873
-0.004585
-0.004987
-0.004703
-0.004673
-0.004674
-0.004569
-0.004455
-0.004563
-0.004798
-0.004686
-0.004529
-0.004792
-0.005188
-0.004709
-0.005206
-0.005185
-0.005466
-0.005088
-0.005283
-0.005325
-0.004959
-0.004394
-0.004989
-0.005177
-0.005131
-0.005053
-0.004925
-0.004630
-0.005417
-0.004770
-0.004597
-0.004863
-0.005100
-0.004888
-0.004521
-0.004828
-0.004685
-0.004784
-0.004194
-0.004254
-0.004654
-0.004405
-0.004690
-0.004355
-0.005221
-0.005341
-0.005104
-0.004895
-0.004974
-0.004722
-0.005048
-0.004948
-0.004922
-0.004480
-0.004708
-0.004802
-0.004404
-0.004579
-0.004703
-0.004651
-0.004260
-0.004591
-0.004439
-0.004371
-0.004797
-0.005074
-0.004674
-0.004763
-0.004517
-0.005180
-0.004547
-0.005455
-0.004864
-0.004845
-0.004466
-0.004814
-0.005009
-0.005114
-0.004681
-0.005108
-0.004734
-0.005199
-0.004620
-0.004455
-0.004458
-0.004845
-0.005215
-0.004990
-0.004999
-0.005183
-0.004874
-0.004845
-0.005004
-0.005147
-0.005083
-0.005094
-0.004759
-0.004830
-0.004941
-0.004793
-0.004952
-0.004996
-0.004846
-0.005132
-0.005031
-0.004257
-0.004190
-0.004876
-0.004498
-0.004622
-0.004548
-0.004162
-0.004255
-0.004419
-0.004364
-0.004491
-0.004050
-0.004673
-0.004914
-0.005132
-0.004648
-0.005072
-0.004538
-0.004868
-0.004518
-0.004820
-0.004558
-0.003836
-0.004321
-0.004901
-0.004432
-0.004664
-0.004226
-0.005202
-0.004636
-0.004624
-0.004846
-0.004600
-0.004467
-0.004484
-0.004399
-0.004403
-0.004652
-0.004325
-0.004944
-0.004992
-0.004685
-0.004487
-0.004445
-0.005249
-0.004947
-0.004488
-0.004470
-0.004909
-0.005210
-0.004837
-0.004959
-0.004684
-0.004596
-0.004756
-0.004956
-0.004515
-0.004862
-0.004905
-0.004905
-0.004466
-0.004454
-0.004136
-0.004684
-0.004654
-0.004804
-0.004251
-0.004844
-0.004249
-0.004706
-0.004363
-0.004833
-0.004670
-0.004571
-0.004604
-0.004408
-0.004682
-0.005158
-0.004474
-0.003797
-0.004816
-0.004391
-0.004970
-0.004827
-0.004934
-0.004702
-0.004877
-0.004660
-0.004209
-0.004840
-0.004837
-0.005086
-0.005117
-0.004830
-0.004583
-0.004601
-0.004603
-0.004931
-0.005116
-0.004795
-0.005162
-0.004923
-0.005091
-0.004747
-0.004576
-0.004313
-0.004809
-0.004440
-0.005104
-0.004979
-0.004733
-0.004935
-0.005192
-0.004901
-0.004224
-0.004871
-0.004851
-0.004440
-0.004313
-0.004317
-0.004640
-0.004981
-0.004755
-0.004720
-0.004775
-0.004706
-0.004563
-0.005010
-0.004605
-0.004265
-0.004364
-0.004313
-0.004296
-0.004333
-0.003645
-0.003789
-0.003920
-0.004273
-0.004103
-0.003956
-0.004347
-0.004182
-0.005018
-0.004923
-0.004813
-0.004815
-0.004543
-0.004420
-0.004472
-0.004436
-0.004660
-0.004488
-0.004698
-0.004647
-0.003970
-0.004801
-0.004338
-0.004583
-0.004406
-0.004125
-0.004292
-0.004001
-0.004138
-0.004417
-0.004206
-0.004818
-0.004878
-0.004583
-0.004421
-0.004379
-0.004177
-0.004441
-0.004305
-0.004281
-0.003793
-0.004158
-0.004876
-0.004242
-0.003890
-0.004475
-0.004674
-0.004288
-0.004056
-0.004080
-0.004191
-0.004045
-0.004138
-0.003976
-0.004394
-0.004789
-0.004677
-0.004233
-0.004371
-0.004813
-0.004294
-0.003466
-0.004206
-0.004078
-0.004310
-0.004346
-0.003996
-0.004429
-0.003804
-0.004224
-0.004526
-0.004167
-0.005003
-0.004707
-0.004849
-0.004507
-0.004426
-0.004666
-0.004865
-0.004926
-0.005290
-0.004681
-0.004851
-0.005137
-0.005179
-0.004399
-0.004831
-0.004820
-0.004660
-0.005039
-0.004503
-0.004464
-0.004024
-0.004932
-0.004597
-0.004298
-0.004884
-0.004731
-0.004797
-0.004954
-0.004719
-0.004433
-0.004875
-0.004305
-0.004664
-0.004738
-0.004362
-0.004335
-0.004588
-0.004548
-0.004642
-0.005182
-0.004340
-0.004608
-0.004995
-0.005212
-0.004965
-0.004594
-0.005051
-0.005285
-0.004967
-0.004716
-0.005524
-0.005137
-0.004564
-0.004351
-0.004990
-0.004815
-0.004866
-0.004962
-0.005310
-0.004483
-0.004729
-0.005030
-0.005007
-0.004917
-0.004498
-0.004588
-0.004909
-0.005230
-0.004956
-0.005368
-0.004706
-0.004768
-0.004343
-0.004589
-0.004840
-0.004696
-0.005024
-0.004790
-0.004543
-0.004237
-0.004891
-0.004833
-0.004683
-0.004879
-0.004483
-0.004975
-0.004524
-0.005261
-0.004950
-0.005325
-0.004866
-0.004982
-0.004693
-0.004761
-0.004626
-0.005150
-0.004694
-0.004301
-0.004659
-0.004594
-0.004363
-0.004489
-0.004186
-0.004143
-0.004539
-0.003909
-0.004585
-0.004679
-0.004995
-0.004383
-0.004963
-0.004915
-0.004961
-0.004459
-0.004829
-0.004220
-0.004672
-0.005020
-0.004705
-0.004615
-0.004174
-0.004648
-0.004625
-0.004663
-0.004837
-0.005396
-0.005178
-0.005020
-0.005445
-0.004924
-0.004757
-0.004319
-0.004669
-0.004242
-0.004524
-0.004536
-0.004857
-0.004981
-0.004506
-0.004573
-0.004938
-0.004705
-0.005012
-0.005248
-0.004770
-0.004270
-0.004422
-0.003899
