Energy per particle (eV)
-0.003965
-0.004034
-0.004183
-0.004164
-0.004769
-0.004459
-0.004494
-0.004320
-0.004327
-0.004426
-0.004526
-0.004870
-0.004962
-0.005200
-0.004264
-0.004857
-0.004680
-0.004157
-0.004086
-0.004359
-0.004331
-0.004178
-0.003986
-0.004085
-0.004548
-0.004088
-0.004802
-0.004534
-0.004406
-0.004362
-0.004404
-0.004450
-0.004226
-0.004265
-0.003798
-0.004458
-0.004573
-0.005319
-0.004854
-0.004423
-0.004230
-0.004040
-0.004187
-0.004341
-0.004628
-0.004211
-0.004567
-0.003947
-0.003745
-0.003866
-0.004516
-0.004608
-0.004058
-0.004501
-0.004108
-0.004407
-0.004236
-0.004998
-0.004978
-0.004396
-0.004433
-0.004316
-0.004555
-0.004580
-0.004505
-0.004871
-0.004628
-0.004335
-0.003967
-0.004524
-0.004403
-0.004051
-0.004337
-0.004011
-0.004568
-0.004551
-0.004344
-0.004239
-0.004634
-0.004332
-0.004848
-0.004528
-0.003969
-0.004292
-0.004634
-0.004493
-0.004663
-0.004309
-0.003940
-0.004018
-0.003873
-0.004185
-0.004135
-0.003913
-0.004170
-0.004304
-0.003966
-0.004075
-0.004190
-0.004211
-0.004509
-0.004478
-0.004295
-0.004059
-0.004189
-0.004274
-0.004574
-0.004729
-0.004118
-0.004144
-0.004524
-0.004675
-0.004104
-0.004458
-0.004332
-0.004747
-0.003684
-0.004271
-0.004073
-0.003710
-0.003851
-0.004321
-0.003891
-0.003812
-0.004153
-0.003916
-0.004071
-0.004198
-0.004285
-0.003949
-0.004518
-0.004557
-0.003978
-0.004475
-0.004562
-0.004646
-0.004380
-0.004402
-0.003928
-0.003838
-0.003987
-0.004216
-0.003912
-0.003926
-0.003785
-0.004449
-0.004186
-0.004247
-0.004367
-0.004349
-0.004394
-0.004843
-0.004126
-0.003983
-0.003818
-0.004084
-0.003863
-0.004066
-0.004589
-0.003983
-0.003998
-0.003800
-0.003910
-0.003477
-0.003365
-0.004065
-0.004547
-0.003835
-0.004368
-0.005082
-0.003984
-0.003840
-0.004020
-0.003653
-0.004400
-0.003754
-0.003894
-0.003829
-0.004239
-0.004252
-0.004184
-0.003993
-0.004298
-0.004087
-0.004519
-0.004017
-0.004020
-0.003775
-0.003420
-0.003978
-0.003736
-0.003716
-0.003825
-0.003512
-0.003259
-0.003495
-0.003722
-0.003830
-0.004090
-0.004166
-0.004173
-0.003888
-0.003961
-0.003252
-0.004294
-0.004069
-0.003480
-0.004092
-0.004211
-0.003866
-0.003279
-0.004260
-0.003762
-0.003265
-0.003698
-0.003835
-0.004200
-0.004098
-0.003966
-0.004224
-0.003892
-0.003573
-0.004546
-0.003765
-0.004202
-0.003948
-0.004026
-0.003925
-0.003560
-0.003985
-0.003884
-0.004073
-0.004031
-0.004005
-0.003702
-0.004126
-0.004248
-0.003778
-0.003596
-0.003660
-0.004004
-0.003944
-0.003527
-0.003870
-0.003744
-0.003784
-0.004057
-0.003556
-0.004297
-0.003627
-0.003723
-0.003561
-0.003635
-0.004166
-0.004237
-0.004218
-0.004649
-0.004145
-0.004366
-0.004201
-0.004073
-0.003574
-0.004086
-0.003763
-0.003724
-0.004266
-0.004097
-0.004297
-0.004588
-0.004465
-0.003806
-0.003981
-0.003874
-0.004151
-0.003810
-0.003827
-0.004373
-0.004192
-0.004663
-0.004703
-0.004266
-0.004379
-0.004226
-0.004425
-0.004212
-0.003753
-0.004173
-0.004564
-0.004145
-0.004344
-0.004267
-0.004228
-0.004262
-0.004125
-0.004173
-0.003950
-0.003985
-0.004273
-0.004251
-0.004427
-0.004360
-0.004883
-0.005109
-0.005273
-0.004800
-0.004256
-0.004304
-0.004326
-0.004441
-0.004180
-0.004325
-0.004216
-0.004662
-0.004669
-0.004351
-0.003945
-0.004040
-0.004654
-0.003970
-0.003995
-0.004059
-0.004130
-0.004394
-0.003977
-0.003643
-0.004157
-0.003841
-0.003564
-0.004114
-0.003573
-0.003728
-0.004036
-0.004415
-0.004765
-0.004448
-0.004002
-0.005107
-0.004395
-0.005143
-0.004650
-0.004497
-0.004363
-0.003525
-0.004728
-0.004795
-0.004775
-0.004379
-0.004341
-0.004579
-0.004693
-0.004129
-0.004250
-0.004017
-0.003960
-0.004469
-0.004263
-0.004288
-0.003834
-0.003441
-0.003533
-0.003563
-0.004329
-0.004096
-0.003825
-0.003845
-0.003526
-0.004095
-0.003492
-0.004156
-0.003942
-0.003578
-0.003915
-0.003976
-0.003911
-0.003854
-0.004232
-0.004279
-0.003749
-0.004084
-0.004024
-0.003683
-0.004548
-0.004018
-0.003916
-0.004423
-0.003808
-0.003860
-0.004639
-0.004106
-0.003905
-0.004031
-0.003819
-0.004019
-0.004332
-0.004253
-0.004341
-0.004323
-0.003802
-0.003728
-0.003907
-0.004066
-0.004559
-0.004381
-0.003906
-0.004209
-0.003825
-0.003876
-0.004046
-0.003927
-0.004100
-0.004021
-0.004119
-0.003907
-0.004239
-0.004360
-0.004488
-0.004557
-0.004419
-0.003837
-0.003770
-0.004244
-0.004484
-0.004515
-0.003950
-0.004284
-0.003930
-0.003741
-0.003446
-0.004510
-0.004475
-0.004744
-0.004741
-0.004346
-0.004470
-0.004271
-0.004164
-0.004118
-0.004302
-0.003987
-0.003931
-0.004896
-0.004267
-0.004187
-0.003978
-0.004419
-0.004742
-0.004732
-0.004274
-0.004365
-0.004697
-0.004624
-0.004232
-0.004794
-0.004202
-0.004305
-0.004212
-0.003942
-0.003356
-0.004759
-0.004113
-0.003964
-0.004322
-0.004299
-0.003643
-0.003940
-0.003716
-0.003913
-0.003903
-0.004145
-0.004137
-0.004311
-0.004060
-0.003621
-0.004085
-0.004181
-0.003680
-0.004085
-0.003894
-0.003817
-0.004013
-0.003951
-0.003914
-0.003664
-0.003920
-0.004380
-0.004231
-0.004395
-0.004054
-0.004236
-0.004637
-0.004906
-0.004348
-0.004084
-0.003775
-0.003769
-0.003689
-0.003745
-0.003810
-0.004021
-0.003778
-0.004689
-0.004155
-0.004495
-0.003968
-0.004013
-0.003949
-0.004226
-0.004276
-0.004213
-0.004020
-0.004052
-0.004194
-0.003993
-0.003906
-0.003946
-0.003684
-0.003909
-0.004268
-0.004111
-0.003878
-0.004017
-0.003941
-0.003530
-0.003668
-0.004255
-0.003954
-0.003305
-0.004344
-0.003668
-0.004022
-0.003929
-0.003938
-0.003696
-0.003722
-0.003477
-0.003593
-0.004132
-0.003729
-0.003786
-0.003928
-0.004167
-0.003824
-0.004186
-0.003846
-0.004086
-0.003995
-0.004528
-0.004276
-0.004456
-0.004689
-0.004653
-0.004315
-0.004519
-0.004397
-0.004469
-0.004594
-0.004584
-0.004281
-0.004088
-0.004344
-0.004398
-0.004494
-0.004471
-0.004535
-0.004705
-0.004694
-0.004808
-0.005018
-0.004726
-0.004567
-0.004813
-0.004054
-0.004708
-0.004398
-0.004192
-0.004590
-0.004644
-0.004301
-0.004290
-0.004471
-0.003999
-0.004060
-0.004007
-0.004276
-0.003821
-0.004031
-0.004256
-0.004106
-0.004731
-0.004428
-0.004516
-0.004645
-0.004670
-0.004347
-0.004563
-0.004713
-0.004656
-0.004730
-0.004352
-0.004405
-0.004545
-0.004387
-0.004416
-0.004855
-0.004556
-0.004470
-0.004570
-0.004416
-0.004269
-0.004370
-0.004143
-0.004082
-0.004564
-0.004113
-0.003624
-0.003776
-0.004258
-0.004382
-0.003744
-0.003846
-0.004042
-0.003791
-0.003915
-0.003420
-0.003557
-0.004102
-0.003915
-0.004252
-0.003995
-0.003804
-0.003960
-0.003781
-0.003933
-0.004300
-0.004222
-0.004373
-0.004043
-0.004214
-0.003748
-0.004051
-0.003682
-0.003724
-0.003946
-0.003981
-0.004299
-0.004438
-0.003973
-0.004227
-0.004430
-0.004033
-0.004777
-0.004652
-0.004723
-0.004679
-0.005010
-0.004726
-0.004945
-0.004839
-0.005040
-0.004802
-0.004698
-0.004927
-0.005553
-0.005410
-0.005401
-0.005520
-0.004991
-0.004882
-0.004793
-0.003839
-0.004103
-0.004625
-0.004803
-0.004884
-0.005246
-0.005530
-0.005049
-0.004465
-0.004433
-0.004396
-0.003955
-0.004347
-0.004830
-0.004163
-0.004086
-0.004021
-0.004247
-0.004491
-0.004279
-0.004276
-0.004452
-0.004344
-0.003880
-0.003751
-0.004372
-0.004231
-0.003733
-0.003882
-0.004622
-0.004175
-0.004278
-0.003962
-0.004101
-0.004439
-0.004408
-0.004194
-0.003605
-0.004133
-0.004046
-0.004317
-0.004179
-0.004031
-0.003958
-0.004003
-0.004212
-0.004254
-0.004202
-0.004462
-0.004510
-0.004283
-0.004790
-0.004155
-0.004521
-0.004280
-0.004214
-0.004164
-0.004127
-0.004249
-0.004306
-0.004108
-0.004204
-0.003895
-0.004223
-0.004995
-0.004412
-0.004313
-0.004716
-0.004054
-0.003870
-0.004222
-0.004420
-0.003842
-0.003762
-0.003870
-0.003505
-0.004147
-0.004045
-0.004481
-0.004256
-0.004349
-0.004358
-0.004199
-0.004272
-0.004307
-0.004861
-0.004991
-0.004831
-0.004280
-0.003833
-0.004140
-0.004465
-0.004490
-0.004182
-0.004674
-0.005080
-0.003524
-0.004215
-0.004070
-0.004102
-0.004019
-0.004392
-0.003870
-0.003922
-0.004678
-0.004498
-0.004613
-0.004376
-0.004639
-0.005079
-0.004332
-0.004337
-0.004151
-0.004257
-0.004114
-0.004438
-0.003373
-0.003750
-0.003764
-0.004372
-0.004027
-0.003733
-0.003905
-0.004256
-0.003504
-0.004218
-0.004538
-0.004242
-0.004250
-0.004163
-0.003747
-0.004057
-0.004294
-0.003900
-0.003825
-0.004277
-0.003596
-0.003633
-0.003714
-0.003850
-0.003585
-0.004266
-0.004421
-0.004376
-0.004590
-0.004530
-0.004359
-0.004494
-0.004201
-0.004211
-0.004191
-0.004466
-0.004569
-0.004738
-0.003751
-0.004285
-0.003862
-0.004446
-0.004566
-0.004225
-0.004234
-0.004533
-0.004204
-0.004015
-0.003957
-0.003727
-0.004154
-0.004242
-0.004252
-0.004340
-0.004347
-0.004041
-0.004633
-0.004562
-0.003972
-0.003939
-0.004229
-0.004575
-0.003871
-0.003747
-0.003977
-0.003738
-0.003870
-0.004024
-0.003825
-0.003404
-0.003703
-0.004471
-0.004420
-0.003566
-0.003916
-0.003900
-0.003729
-0.003580
-0.003780
-0.004167
-0.004367
-0.003887
-0.003599
-0.004100
-0.004140
-0.004114
-0.003762
-0.003985
-0.003998
-0.003916
-0.004171
-0.004216
-0.004279
-0.004376
-0.004481
-0.004397
-0.004398
-0.004340
-0.003911
-0.005048
-0.004602
-0.004172
-0.004897
-0.004274
-0.004401
-0.004050
-0.004196
-0.004354
-0.004170
-0.003864
-0.003736
-0.003714
-0.004399
-0.004039
-0.003622
-0.004244
-0.004312
-0.003608
-0.003753
-0.003584
-0.004128
-0.004112
-0.004177
-0.003724
-0.003757
-0.003782
-0.004027
-0.003967
-0.004041
-0.004081
-0.003739
-0.003939
-0.004014
-0.003549
-0.003613
-0.003596
-0.004086
-0.003763
-0.003898
-0.003398
-0.003800
-0.003687
-0.004437
-0.003987
-0.003548
-0.003848
-0.003928
-0.003620
-0.003976
-0.003934
-0.003778
-0.004475
-0.003422
-0.003522
-0.003667
-0.003703
-0.003633
-0.003531
-0.003936
-0.003691
-0.003831
-0.003981
-0.003962
-0.003844
-0.003663
-0.004080
-0.004562
-0.004122
-0.004002
-0.003804
-0.003528
-0.003833
-0.003979
-0.003849
-0.004441
-0.004372
-0.004311
-0.004214
-0.004010
-0.003669
-0.003744
-0.004233
-0.004000
-0.004203
-0.004356
-0.003905
-0.003965
-0.004181
-0.004117
-0.003902
-0.004051
-0.004057
-0.003992
-0.003611
-0.003759
-0.003608
-0.003774
-0.003985
-0.004037
-0.003747
-0.004004
-0.004106
-0.004184
-0.004112
-0.003781
-0.004053
-0.003526
-0.004120
-0.004263
-0.004167
-0.004079
-0.003699
-0.004582
-0.004323
-0.004554
